name: nitrate_884_peaksweep_1000ppm
concentration: 1000
integration: 10
repetitions: 1
wavelengths:
770
771
772
773
774
775
776
777
778
779
780
781
782
783
784
785
786
787
788
789
790
791
792
793
794
795
796
797
798
799
800.0
800.1
800.2
800.3000000000001
800.4000000000001
800.5000000000001
800.6000000000001
800.7000000000002
800.8000000000002
800.9000000000002
801.0000000000002
801.1000000000003
801.2000000000003
801.3000000000003
801.4000000000003
801.5000000000003
801.6000000000004
801.7000000000004
801.8000000000004
801.9000000000004
802.0000000000005
802.1000000000005
802.2000000000005
802.3000000000005
802.4000000000005
802.5000000000006
802.6000000000006
802.7000000000006
802.8000000000006
802.9000000000007
803.0000000000007
803.1000000000007
803.2000000000007
803.3000000000008
803.4000000000008
803.5000000000008
803.6000000000008
803.7000000000008
803.8000000000009
803.9000000000009
804.0000000000009
804.1000000000009
804.200000000001
804.300000000001
804.400000000001
804.500000000001
804.600000000001
804.7000000000011
804.8000000000011
804.9000000000011
805.0000000000011
805.1000000000012
805.2000000000012
805.3000000000012
805.4000000000012
805.5000000000013
805.6000000000013
805.7000000000013
805.8000000000013
805.9000000000013
806.0000000000014
806.1000000000014
806.2000000000014
806.3000000000014
806.4000000000015
806.5000000000015
806.6000000000015
806.7000000000015
806.8000000000015
806.9000000000016
807.0000000000016
807.1000000000016
807.2000000000016
807.3000000000017
807.4000000000017
807.5000000000017
807.6000000000017
807.7000000000018
807.8000000000018
807.9000000000018
808.0000000000018
808.1000000000018
808.2000000000019
808.3000000000019
808.4000000000019
808.5000000000019
808.600000000002
808.700000000002
808.800000000002
808.900000000002
809.000000000002
809.1000000000021
809.2000000000021
809.3000000000021
809.4000000000021
809.5000000000022
809.6000000000022
809.7000000000022
809.8000000000022
809.9000000000023
810.0000000000023
810.1000000000023
810.2000000000023
810.3000000000023
810.4000000000024
810.5000000000024
810.6000000000024
810.7000000000024
810.8000000000025
810.9000000000025
811.0000000000025
811.1000000000025
811.2000000000025
811.3000000000026
811.4000000000026
811.5000000000026
811.6000000000026
811.7000000000027
811.8000000000027
811.9000000000027
812.0000000000027
812.1000000000028
812.2000000000028
812.3000000000028
812.4000000000028
812.5000000000028
812.6000000000029
812.7000000000029
812.8000000000029
812.9000000000029
813.000000000003
813.100000000003
813.200000000003
813.300000000003
813.400000000003
813.5000000000031
813.6000000000031
813.7000000000031
813.8000000000031
813.9000000000032
814.0000000000032
814.1000000000032
814.2000000000032
814.3000000000033
814.4000000000033
814.5000000000033
814.6000000000033
814.7000000000033
814.8000000000034
814.9000000000034
815.0000000000034
815.1000000000034
815.2000000000035
815.3000000000035
815.4000000000035
815.5000000000035
815.6000000000035
815.7000000000036
815.8000000000036
815.9000000000036
816.0000000000036
816.1000000000037
816.2000000000037
816.3000000000037
816.4000000000037
816.5000000000038
816.6000000000038
816.7000000000038
816.8000000000038
816.9000000000038
817.0000000000039
817.1000000000039
817.2000000000039
817.3000000000039
817.400000000004
817.500000000004
817.600000000004
817.700000000004
817.800000000004
817.9000000000041
818.0000000000041
818.1000000000041
818.2000000000041
818.3000000000042
818.4000000000042
818.5000000000042
818.6000000000042
818.7000000000043
818.8000000000043
818.9000000000043
819.0000000000043
819.1000000000043
819.2000000000044
819.3000000000044
819.4000000000044
819.5000000000044
819.6000000000045
819.7000000000045
819.8000000000045
819.9000000000045
820